# media file for fused silica (corning)
# column 1 is wavelength (microns) and column 2 is index of refraction
      0.30000001       1.4878221
      0.30100001       1.4875413
      0.30200001       1.4872638
      0.30300001       1.4869894
      0.30400001       1.4867182
      0.30500001       1.4864500
      0.30600001       1.4861848
      0.30700001       1.4859225
      0.30800001       1.4856632
      0.30900001       1.4854068
      0.31000001       1.4851531
      0.31100001       1.4849023
      0.31200001       1.4846542
      0.31300001       1.4844088
      0.31400001       1.4841661
      0.31500001       1.4839259
      0.31600001       1.4836884
      0.31700001       1.4834534
      0.31800001       1.4832209
      0.31900001       1.4829909
      0.32000001       1.4827633
      0.32100001       1.4825381
      0.32200001       1.4823152
      0.32300001       1.4820947
      0.32400001       1.4818764
      0.32500001       1.4816605
      0.32600001       1.4814467
      0.32700001       1.4812352
      0.32800001       1.4810258
      0.32900001       1.4808185
      0.33000001       1.4806133
      0.33100001       1.4804102
      0.33200001       1.4802092
      0.33300001       1.4800101
      0.33400001       1.4798131
      0.33500001       1.4796180
      0.33600001       1.4794248
      0.33700001       1.4792336
      0.33800001       1.4790442
      0.33900001       1.4788567
      0.34000001       1.4786710
      0.34100001       1.4784871
      0.34200001       1.4783050
      0.34300001       1.4781246
      0.34400001       1.4779460
      0.34500001       1.4777690
      0.34600001       1.4775938
      0.34700001       1.4774202
      0.34800001       1.4772483
      0.34900001       1.4770780
      0.35000001       1.4769092
      0.35100001       1.4767421
      0.35200001       1.4765765
      0.35300001       1.4764125
      0.35400001       1.4762499
      0.35500001       1.4760889
      0.35600001       1.4759293
      0.35700001       1.4757712
      0.35800001       1.4756146
      0.35900001       1.4754593
      0.36000001       1.4753055
      0.36100001       1.4751530
      0.36200001       1.4750019
      0.36300001       1.4748522
      0.36400001       1.4747038
      0.36500001       1.4745567
      0.36600001       1.4744110
      0.36700001       1.4742665
      0.36800001       1.4741233
      0.36900001       1.4739813
      0.37000001       1.4738406
      0.37100001       1.4737011
      0.37200001       1.4735628
      0.37300001       1.4734257
      0.37400001       1.4732897
      0.37500001       1.4731550
      0.37600001       1.4730214
      0.37700001       1.4728889
      0.37800002       1.4727576
      0.37900002       1.4726273
      0.38000002       1.4724982
      0.38100002       1.4723701
      0.38200002       1.4722432
      0.38300002       1.4721172
      0.38400002       1.4719924
      0.38500002       1.4718685
      0.38600002       1.4717457
      0.38700002       1.4716239
      0.38800002       1.4715031
      0.38900002       1.4713833
      0.39000002       1.4712645
      0.39100002       1.4711466
      0.39200002       1.4710297
      0.39300002       1.4709137
      0.39400002       1.4707986
      0.39500002       1.4706845
      0.39600002       1.4705713
      0.39700002       1.4704590
      0.39800002       1.4703476
      0.39900002       1.4702371
      0.40000002       1.4701274
      0.40100002       1.4700186
      0.40200002       1.4699106
      0.40300002       1.4698035
      0.40400002       1.4696973
      0.40500002       1.4695918
      0.40600002       1.4694872
      0.40700002       1.4693833
      0.40800002       1.4692803
      0.40900002       1.4691781
      0.41000002       1.4690766
      0.41100002       1.4689759
      0.41200002       1.4688760
      0.41300002       1.4687768
      0.41400002       1.4686784
      0.41500002       1.4685807
      0.41600002       1.4684838
      0.41700002       1.4683876
      0.41800002       1.4682921
      0.41900002       1.4681973
      0.42000002       1.4681032
      0.42100002       1.4680098
      0.42200002       1.4679170
      0.42300002       1.4678250
      0.42400002       1.4677336
      0.42500002       1.4676429
      0.42600002       1.4675529
      0.42700002       1.4674635
      0.42800002       1.4673748
      0.42900002       1.4672867
      0.43000002       1.4671992
      0.43100002       1.4671123
      0.43200002       1.4670261
      0.43300002       1.4669405
      0.43400002       1.4668555
      0.43500002       1.4667711
      0.43600002       1.4666872
      0.43700002       1.4666040
      0.43800002       1.4665214
      0.43900002       1.4664393
      0.44000002       1.4663578
      0.44100002       1.4662769
      0.44200002       1.4661965
      0.44300002       1.4661167
      0.44400002       1.4660374
      0.44500002       1.4659587
      0.44600002       1.4658805
      0.44700002       1.4658029
      0.44800002       1.4657257
      0.44900002       1.4656491
      0.45000002       1.4655730
      0.45100002       1.4654975
      0.45200002       1.4654224
      0.45300002       1.4653478
      0.45400002       1.4652738
      0.45500002       1.4652002
      0.45600002       1.4651271
      0.45700002       1.4650545
      0.45800002       1.4649824
      0.45900002       1.4649107
      0.46000002       1.4648395
      0.46100002       1.4647688
      0.46200002       1.4646986
      0.46300002       1.4646288
      0.46400002       1.4645594
      0.46500002       1.4644905
      0.46600002       1.4644221
      0.46700002       1.4643540
      0.46800002       1.4642865
      0.46900002       1.4642193
      0.47000002       1.4641526
      0.47100002       1.4640863
      0.47200002       1.4640204
      0.47300002       1.4639550
      0.47400002       1.4638899
      0.47500002       1.4638253
      0.47600002       1.4637610
      0.47700002       1.4636972
      0.47800002       1.4636337
      0.47900002       1.4635707
      0.48000002       1.4635080
      0.48100002       1.4634458
      0.48200002       1.4633839
      0.48300002       1.4633224
      0.48400002       1.4632612
      0.48500002       1.4632005
      0.48600002       1.4631401
      0.48700002       1.4630800
      0.48800002       1.4630204
      0.48900002       1.4629611
      0.49000002       1.4629021
      0.49100002       1.4628435
      0.49200002       1.4627853
      0.49300002       1.4627274
      0.49400002       1.4626698
      0.49500002       1.4626126
      0.49600002       1.4625558
      0.49700002       1.4624992
      0.49800002       1.4624430
      0.49900002       1.4623871
      0.50000002       1.4623316
      0.50100002       1.4622763
      0.50200002       1.4622214
      0.50300002       1.4621668
      0.50400002       1.4621126
      0.50500002       1.4620586
      0.50600002       1.4620049
      0.50700002       1.4619516
      0.50800002       1.4618986
      0.50900002       1.4618458
      0.51000002       1.4617934
      0.51100002       1.4617412
      0.51200002       1.4616894
      0.51300002       1.4616378
      0.51400002       1.4615866
      0.51500002       1.4615356
      0.51600002       1.4614849
      0.51700002       1.4614345
      0.51800002       1.4613843
      0.51900002       1.4613345
      0.52000002       1.4612849
      0.52100002       1.4612356
      0.52200002       1.4611865
      0.52300002       1.4611378
      0.52400002       1.4610892
      0.52500002       1.4610410
      0.52600002       1.4609930
      0.52700002       1.4609453
      0.52800002       1.4608978
      0.52900002       1.4608506
      0.53000002       1.4608037
      0.53100002       1.4607570
      0.53200002       1.4607105
      0.53300002       1.4606643
      0.53400002       1.4606183
      0.53500002       1.4605726
      0.53600002       1.4605271
      0.53700002       1.4604819
      0.53800002       1.4604369
      0.53900002       1.4603921
      0.54000002       1.4603476
      0.54100002       1.4603033
      0.54200002       1.4602592
      0.54300002       1.4602154
      0.54400002       1.4601718
      0.54500002       1.4601284
      0.54600002       1.4600852
      0.54700002       1.4600422
      0.54800002       1.4599995
      0.54900002       1.4599570
      0.55000002       1.4599147
      0.55100002       1.4598726
      0.55200002       1.4598307
      0.55300002       1.4597891
      0.55400002       1.4597476
      0.55500002       1.4597064
      0.55600002       1.4596653
      0.55700002       1.4596245
      0.55800002       1.4595838
      0.55900002       1.4595434
      0.56000002       1.4595032
      0.56100002       1.4594631
      0.56200002       1.4594233
      0.56300002       1.4593836
      0.56400002       1.4593442
      0.56500002       1.4593049
      0.56600002       1.4592658
      0.56700002       1.4592270
      0.56800002       1.4591883
      0.56900002       1.4591497
      0.57000002       1.4591114
      0.57100002       1.4590733
      0.57200002       1.4590353
      0.57300002       1.4589975
      0.57400002       1.4589599
      0.57500002       1.4589225
      0.57600002       1.4588853
      0.57700002       1.4588482
      0.57800002       1.4588113
      0.57900002       1.4587745
      0.58000002       1.4587380
      0.58100002       1.4587016
      0.58200002       1.4586654
      0.58300002       1.4586293
      0.58400002       1.4585934
      0.58500002       1.4585577
      0.58600002       1.4585222
      0.58700002       1.4584868
      0.58800002       1.4584515
      0.58900002       1.4584165
      0.59000002       1.4583815
      0.59100002       1.4583468
      0.59200002       1.4583122
      0.59300002       1.4582777
      0.59400002       1.4582434
      0.59500002       1.4582093
      0.59600002       1.4581753
      0.59700002       1.4581415
      0.59800002       1.4581078
      0.59900002       1.4580742
      0.60000002       1.4580409
      0.60100002       1.4580076
      0.60200002       1.4579745
      0.60300002       1.4579416
      0.60400002       1.4579087
      0.60500002       1.4578761
      0.60600002       1.4578435
      0.60700002       1.4578111
      0.60800002       1.4577789
      0.60900002       1.4577468
      0.61000002       1.4577148
      0.61100002       1.4576830
      0.61200002       1.4576513
      0.61300002       1.4576197
      0.61400002       1.4575883
      0.61500002       1.4575570
      0.61600002       1.4575258
      0.61700002       1.4574947
      0.61800002       1.4574638
      0.61900002       1.4574331
      0.62000002       1.4574024
      0.62100002       1.4573719
      0.62200002       1.4573415
      0.62300002       1.4573112
      0.62400002       1.4572810
      0.62500002       1.4572510
      0.62600002       1.4572211
      0.62700002       1.4571913
      0.62800002       1.4571616
      0.62900002       1.4571321
      0.63000003       1.4571027
      0.63100003       1.4570734
      0.63200003       1.4570442
      0.63300003       1.4570151
      0.63400003       1.4569861
      0.63500003       1.4569573
      0.63600003       1.4569286
      0.63700003       1.4568999
      0.63800003       1.4568714
      0.63900003       1.4568430
      0.64000003       1.4568148
      0.64100003       1.4567866
      0.64200003       1.4567585
      0.64300003       1.4567306
      0.64400003       1.4567027
      0.64500003       1.4566750
      0.64600003       1.4566474
      0.64700003       1.4566198
      0.64800003       1.4565924
      0.64900003       1.4565651
      0.65000003       1.4565379
      0.65100003       1.4565108
      0.65200003       1.4564838
      0.65300003       1.4564569
      0.65400003       1.4564301
      0.65500003       1.4564034
      0.65600003       1.4563768
      0.65700003       1.4563503
      0.65800003       1.4563239
      0.65900003       1.4562976
      0.66000003       1.4562713
      0.66100003       1.4562452
      0.66200003       1.4562192
      0.66300003       1.4561933
      0.66400003       1.4561674
      0.66500003       1.4561417
      0.66600003       1.4561161
      0.66700003       1.4560905
      0.66800003       1.4560651
      0.66900003       1.4560397
      0.67000003       1.4560144
      0.67100003       1.4559892
      0.67200003       1.4559641
      0.67300003       1.4559391
      0.67400003       1.4559142
      0.67500003       1.4558894
      0.67600003       1.4558646
      0.67700003       1.4558400
      0.67800003       1.4558154
      0.67900003       1.4557909
      0.68000003       1.4557665
      0.68100003       1.4557422
      0.68200003       1.4557179
      0.68300003       1.4556938
      0.68400003       1.4556697
      0.68500003       1.4556457
      0.68600003       1.4556218
      0.68700003       1.4555980
      0.68800003       1.4555743
      0.68900003       1.4555506
      0.69000003       1.4555270
      0.69100003       1.4555035
      0.69200003       1.4554801
      0.69300003       1.4554567
      0.69400003       1.4554335
      0.69500003       1.4554103
      0.69600003       1.4553871
      0.69700003       1.4553641
      0.69800003       1.4553411
      0.69900003       1.4553182
      0.70000003       1.4552954
      0.70100003       1.4552727
      0.70200003       1.4552500
      0.70300003       1.4552274
      0.70400003       1.4552049
      0.70500003       1.4551824
      0.70600003       1.4551601
      0.70700003       1.4551377
      0.70800003       1.4551155
      0.70900003       1.4550933
      0.71000003       1.4550712
      0.71100003       1.4550492
      0.71200003       1.4550273
      0.71300003       1.4550054
      0.71400003       1.4549835
      0.71500003       1.4549618
      0.71600003       1.4549401
      0.71700003       1.4549185
      0.71800003       1.4548969
      0.71900003       1.4548754
      0.72000003       1.4548540
      0.72100003       1.4548327
      0.72200003       1.4548114
      0.72300003       1.4547901
      0.72400003       1.4547690
      0.72500003       1.4547479
      0.72600003       1.4547268
      0.72700003       1.4547059
      0.72800003       1.4546849
      0.72900003       1.4546641
      0.73000003       1.4546433
      0.73100003       1.4546226
      0.73200003       1.4546019
      0.73300003       1.4545813
      0.73400003       1.4545607
      0.73500003       1.4545403
      0.73600003       1.4545198
      0.73700003       1.4544995
      0.73800003       1.4544792
      0.73900003       1.4544589
      0.74000003       1.4544387
      0.74100003       1.4544186
      0.74200003       1.4543985
      0.74300003       1.4543785
      0.74400003       1.4543585
      0.74500003       1.4543386
      0.74600003       1.4543187
      0.74700003       1.4542989
      0.74800003       1.4542792
      0.74900003       1.4542595
      0.75000003       1.4542399
      0.75100003       1.4542203
      0.75200003       1.4542008
      0.75300003       1.4541813
      0.75400003       1.4541619
      0.75500003       1.4541425
      0.75600003       1.4541232
      0.75700003       1.4541039
      0.75800003       1.4540847
      0.75900003       1.4540655
      0.76000003       1.4540464
      0.76100003       1.4540274
      0.76200003       1.4540084
      0.76300003       1.4539894
      0.76400003       1.4539705
      0.76500003       1.4539516
      0.76600003       1.4539328
      0.76700003       1.4539141
      0.76800003       1.4538954
      0.76900003       1.4538767
      0.77000003       1.4538581
      0.77100003       1.4538395
      0.77200003       1.4538210
      0.77300003       1.4538025
      0.77400003       1.4537841
      0.77500003       1.4537657
      0.77600003       1.4537474
      0.77700003       1.4537291
      0.77800003       1.4537109
      0.77900003       1.4536927
      0.78000003       1.4536745
      0.78100003       1.4536564
      0.78200003       1.4536383
      0.78300003       1.4536203
      0.78400003       1.4536024
      0.78500003       1.4535844
      0.78600003       1.4535665
      0.78700003       1.4535487
      0.78800003       1.4535309
      0.78900003       1.4535131
      0.79000003       1.4534954
      0.79100003       1.4534778
      0.79200003       1.4534601
      0.79300003       1.4534426
      0.79400003       1.4534250
      0.79500003       1.4534075
      0.79600003       1.4533900
      0.79700003       1.4533726
      0.79800003       1.4533552
      0.79900003       1.4533379
      0.80000003       1.4533206
      0.80100003       1.4533033
      0.80200003       1.4532861
      0.80300003       1.4532689
      0.80400003       1.4532518
      0.80500003       1.4532347
      0.80600003       1.4532176
      0.80700003       1.4532006
      0.80800003       1.4531836
      0.80900003       1.4531667
      0.81000003       1.4531498
      0.81100003       1.4531329
      0.81200003       1.4531160
      0.81300003       1.4530992
      0.81400003       1.4530825
      0.81500003       1.4530658
      0.81600003       1.4530491
      0.81700003       1.4530324
      0.81800003       1.4530158
      0.81900003       1.4529992
      0.82000003       1.4529827
      0.82100003       1.4529662
      0.82200003       1.4529497
      0.82300003       1.4529332
      0.82400003       1.4529168
      0.82500003       1.4529005
      0.82600003       1.4528841
      0.82700003       1.4528678
      0.82800003       1.4528515
      0.82900003       1.4528353
      0.83000003       1.4528191
      0.83100003       1.4528029
      0.83200003       1.4527868
      0.83300003       1.4527707
      0.83400003       1.4527546
      0.83500003       1.4527386
      0.83600003       1.4527226
      0.83700003       1.4527066
      0.83800003       1.4526907
      0.83900003       1.4526748
      0.84000003       1.4526589
      0.84100003       1.4526430
      0.84200003       1.4526272
      0.84300003       1.4526114
      0.84400003       1.4525957
      0.84500003       1.4525800
      0.84600003       1.4525643
      0.84700003       1.4525486
      0.84800003       1.4525330
      0.84900003       1.4525174
      0.85000003       1.4525018
      0.85100003       1.4524863
      0.85200003       1.4524708
      0.85300003       1.4524553
      0.85400003       1.4524398
      0.85500003       1.4524244
      0.85600003       1.4524090
      0.85700003       1.4523936
      0.85800003       1.4523783
      0.85900003       1.4523630
      0.86000003       1.4523477
      0.86100003       1.4523324
      0.86200003       1.4523172
      0.86300003       1.4523020
      0.86400003       1.4522868
      0.86500003       1.4522717
      0.86600003       1.4522566
      0.86700003       1.4522415
      0.86800003       1.4522264
      0.86900003       1.4522114
      0.87000003       1.4521964
      0.87100003       1.4521814
      0.87200003       1.4521664
      0.87300003       1.4521515
      0.87400003       1.4521366
      0.87500003       1.4521217
      0.87600003       1.4521068
      0.87700003       1.4520920
      0.87800003       1.4520772
      0.87900003       1.4520624
      0.88000003       1.4520477
      0.88100004       1.4520329
      0.88200004       1.4520182
      0.88300004       1.4520035
      0.88400004       1.4519889
      0.88500004       1.4519743
      0.88600004       1.4519596
      0.88700004       1.4519451
      0.88800004       1.4519305
      0.88900004       1.4519160
      0.89000004       1.4519014
      0.89100004       1.4518869
      0.89200004       1.4518725
      0.89300004       1.4518580
      0.89400004       1.4518436
      0.89500004       1.4518292
      0.89600004       1.4518148
      0.89700004       1.4518005
      0.89800004       1.4517861
      0.89900004       1.4517718
      0.90000004       1.4517576
      0.90100004       1.4517433
